#Distance(A) Planar-Average-Potential(eV)/Densitiy(e/A)
  0.0000             5.47005
  0.0981             5.46943
  0.1962             5.46885
  0.2943             5.46822
  0.3924             5.46764
  0.4905             5.46702
  0.5886             5.46643
  0.6867             5.46581
  0.7848             5.46521
  0.8829             5.46460
  0.9810             5.46401
  1.0791             5.46338
  1.1772             5.46279
  1.2753             5.46217
  1.3734             5.46157
  1.4715             5.46095
  1.5696             5.46035
  1.6677             5.45974
  1.7658             5.45913
  1.8639             5.45852
  1.9620             5.45790
  2.0601             5.45730
  2.1582             5.45668
  2.2563             5.45607
  2.3544             5.45545
  2.4525             5.45485
  2.5506             5.45423
  2.6487             5.45362
  2.7468             5.45299
  2.8449             5.45239
  2.9430             5.45176
  3.0411             5.45116
  3.1392             5.45051
  3.2373             5.44992
  3.3354             5.44927
  3.4335             5.44868
  3.5316             5.44801
  3.6297             5.44743
  3.7278             5.44675
  3.8259             5.44616
  3.9240             5.44546
  4.0221             5.44486
  4.1202             5.44414
  4.2183             5.44352
  4.3164             5.44274
  4.4145             5.44209
  4.5126             5.44124
  4.6107             5.44049
  4.7088             5.43950
  4.8069             5.43860
  4.9050             5.43736
  5.0031             5.43616
  5.1012             5.43446
  5.1993             5.43269
  5.2974             5.43017
  5.3955             5.42729
  5.4936             5.42320
  5.5917             5.41825
  5.6898             5.41124
  5.7879             5.40233
  5.8860             5.38976
  5.9841             5.37322
  6.0822             5.34985
  6.1803             5.31844
  6.2784             5.27410
  6.3765             5.21351
  6.4746             5.12734
  6.5727             5.00803
  6.6708             4.83657
  6.7689             4.61120
  6.8670             4.28591
  6.9651             3.72352
  7.0632             2.90791
  7.1613             1.96925
  7.2594             1.06697
  7.3575             0.29715
  7.4556            -0.30756
  7.5537            -0.80247
  7.6518            -1.29835
  7.7499            -1.76489
  7.8480            -2.14304
  7.9461            -2.41870
  8.0442            -2.67617
  8.1423            -3.05058
  8.2404            -3.61991
  8.3385            -4.28781
  8.4366            -4.98799
  8.5347            -5.74749
  8.6328            -6.52439
  8.7309            -7.28899
  8.8290            -8.03563
  8.9271            -8.83537
  9.0252            -9.76215
  9.1233           -10.82587
  9.2214           -11.84010
  9.3195           -12.56426
  9.4176           -12.83505
  9.5157           -12.63730
  9.6138           -12.03127
  9.7119           -11.08488
  9.8100            -9.77358
  9.9081            -8.02321
 10.0062            -5.95510
 10.1043            -3.83131
 10.2024            -1.95681
 10.3005            -0.53843
 10.3986             0.37886
 10.4967             0.88378
 10.5948             1.06620
 10.6929             0.99402
 10.7910             0.59036
 10.8891            -0.20293
 10.9872            -1.39886
 11.0853            -3.02223
 11.1834            -4.99471
 11.2815            -7.08958
 11.3796            -9.01569
 11.4777           -10.54937
 11.5758           -11.69405
 11.6739           -12.50014
 11.7720           -12.91893
 11.8701           -12.91345
 11.9682           -12.45421
 12.0663           -11.62498
 12.1644           -10.58512
 12.2625            -9.52713
 12.3606            -8.58687
 12.4587            -7.77849
 12.5568            -6.99204
 12.6549            -6.20243
 12.7530            -5.43935
 12.8511            -4.76060
 12.9492            -4.19217
 13.0473            -3.75540
 13.1454            -3.61239
 13.2435            -3.85130
 13.3416            -4.33247
 13.4397            -4.82983
 13.5378            -5.19725
 13.6359            -5.40441
 13.7340            -5.48218
 13.8321            -5.43187
 13.9302            -5.24935
 14.0283            -4.90506
 14.1264            -4.42415
 14.2245            -3.95024
 14.3226            -3.70965
 14.4207            -3.83579
 14.5188            -4.26089
 14.6169            -4.80698
 14.7150            -5.42863
 14.8131            -6.13244
 14.9112            -6.86623
 15.0093            -7.59093
 15.1074            -8.29754
 15.2055            -9.11917
 15.3036           -10.15194
 15.4017           -11.29631
 15.4998           -12.28307
 15.5979           -12.88287
 15.6960           -12.98903
 15.7941           -12.65290
 15.8922           -11.94349
 15.9903           -10.91186
 16.0884            -9.45820
 16.1865            -7.54964
 16.2846            -5.38066
 16.3827            -3.27504
 16.4808            -1.55243
 16.5789            -0.34983
 16.6770             0.41569
 16.7751             0.83484
 16.8732             0.95047
 16.9713             0.76725
 17.0694             0.26517
 17.1675            -0.56389
 17.2656            -1.84495
 17.3637            -3.64953
 17.4618            -5.81488
 17.5599            -7.98724
 17.6580            -9.83773
 17.7561           -11.22448
 17.8542           -12.23840
 17.9523           -12.90975
 18.0504           -13.18667
 18.1485           -12.98222
 18.2466           -12.26222
 18.3447           -11.14832
 18.4428            -9.89752
 18.5409            -8.79434
 18.6390            -7.92155
 18.7371            -7.14587
 18.8352            -6.34824
 18.9333            -5.55028
 19.0314            -4.78897
 19.1295            -4.09351
 19.2276            -3.44615
 19.3257            -2.92814
 19.4238            -2.59254
 19.5219            -2.33429
 19.6200            -2.02376
 19.7181            -1.60546
 19.8162            -1.11012
 19.9144            -0.60254
 20.0125            -0.08735
 20.1106             0.56246
 20.2087             1.37434
 20.3068             2.30055
 20.4049             3.22098
 20.5030             3.97586
 20.6011             4.46307
 20.6992             4.75397
 20.7973             4.96617
 20.8954             5.12103
 20.9935             5.23040
 21.0916             5.30795
 21.1897             5.36313
 21.2878             5.40253
 21.3859             5.43071
 21.4840             5.45087
 21.5821             5.46527
 21.6802             5.47555
 21.7783             5.48284
 21.8764             5.48800
 21.9745             5.49161
 22.0726             5.49410
 22.1707             5.49575
 22.2688             5.49679
 22.3669             5.49741
 22.4650             5.49771
 22.5631             5.49778
 22.6612             5.49766
 22.7593             5.49744
 22.8574             5.49711
 22.9555             5.49673
 23.0536             5.49626
 23.1517             5.49580
 23.2498             5.49529
 23.3479             5.49478
 23.4460             5.49421
 23.5441             5.49368
 23.6422             5.49310
 23.7403             5.49256
 23.8384             5.49196
 23.9365             5.49140
 24.0346             5.49081
 24.1327             5.49025
 24.2308             5.48964
 24.3289             5.48908
 24.4270             5.48847
 24.5251             5.48791
 24.6232             5.48729
 24.7213             5.48673
 24.8194             5.48612
 24.9175             5.48556
 25.0156             5.48494
 25.1137             5.48437
 25.2118             5.48376
 25.3099             5.48320
 25.4080             5.48257
 25.5061             5.48201
 25.6042             5.48139
 25.7023             5.48083
 25.8004             5.48020
 25.8985             5.47963
 25.9966             5.47901
 26.0947             5.47845
 26.1928             5.47782
 26.2909             5.47725
 26.3890             5.47663
 26.4871             5.47606
 26.5852             5.47543
 26.6833             5.47486
 26.7814             5.47423
 26.8795             5.47366
 26.9776             5.47303
 27.0757             5.47246
 27.1738             5.47184
 27.2719             5.47126
 27.3700             5.47063
